IAD1

1.34   # Index of refraction of the sample
1.45   # Index of refraction of the top and bottom slides
11.3   # [mm] Thickness of sample
1.0    # [mm] Thickness of slides
10.0   # [mm] Diameter of illumination beam
0.96   # Reflectivity of the reflectance calibration standard

1      # Number of spheres during each measurement

       # Properties of sphere used for reflection measurements
203.2  # [mm] Sphere Diameter  (8 in * 25.4 mm/in)
50.8   # [mm] Sample Port Diameter
19.1   # [mm] Entrance Port Diameter
1.00   # [mm] Detector Port Diameter
0.96   # Reflectivity of the sphere wall

       # Properties of sphere used for transmission measurements
203.2  # [mm] Sphere Diameter  (8 in * 25.4 mm/in)
50.8   # [mm] Sample Port Diameter
19.1   # [mm] Entrance Port Diameter
1.00   # [mm] Detector Port Diameter
0.96   # Reflectivity of the sphere wall

5      # Five measurements, i.e., M_R, M_T, M_U, r_w, r_std

#	   M_R    M_T     M_U      r_w    r_std
400	0.52416	0.03734	0.0000	0.98000	0.99200
401	0.55177	0.04903	0.0000	0.98000	0.99198
402	0.57388	0.06104	0.0000	0.98000	0.99197
403	0.59809	0.07271	0.0000	0.98000	0.99195
404	0.62395	0.08709	0.0000	0.98000	0.99194
405	0.63705	0.09731	0.0000	0.98000	0.99192
406	0.65895	0.10911	0.0000	0.98000	0.99190
407	0.67222	0.11792	0.0000	0.98000	0.99186
408	0.68506	0.12586	0.0000	0.98000	0.99183
409	0.69022	0.13281	0.0000	0.98000	0.99179
410	0.70210	0.14229	0.0000	0.98000	0.99175
411	0.71096	0.14405	0.0000	0.98000	0.99172
412	0.70841	0.15012	0.0000	0.98000	0.99167
413	0.71898	0.15214	0.0000	0.98000	0.99162
414	0.72446	0.15717	0.0000	0.98000	0.99157
415	0.72519	0.15619	0.0000	0.98000	0.99152
416	0.72223	0.15938	0.0000	0.98000	0.99148
417	0.72674	0.15972	0.0000	0.98000	0.99143
418	0.72649	0.16227	0.0000	0.98000	0.99137
419	0.72830	0.16355	0.0000	0.98000	0.99132
420	0.72973	0.16247	0.0000	0.98000	0.99127
421	0.72701	0.16403	0.0000	0.98000	0.99121
422	0.73043	0.16517	0.0000	0.98000	0.99116
423	0.73077	0.16548	0.0000	0.98000	0.99111
424	0.73341	0.16517	0.0000	0.98000	0.99105
425	0.72749	0.16561	0.0000	0.98000	0.99100
426	0.73454	0.16565	0.0000	0.98000	0.99095
427	0.72752	0.16774	0.0000	0.98000	0.99089
428	0.72826	0.16538	0.0000	0.98000	0.99084
429	0.73413	0.16591	0.0000	0.98000	0.99079
430	0.73150	0.16956	0.0000	0.98000	0.99074
431	0.73100	0.16544	0.0000	0.98000	0.99069
432	0.73300	0.16585	0.0000	0.98000	0.99064
433	0.73237	0.16754	0.0000	0.98000	0.99059
434	0.73416	0.16669	0.0000	0.98000	0.99055
435	0.73047	0.16748	0.0000	0.98000	0.99051
436	0.73108	0.16736	0.0000	0.98000	0.99046
437	0.73802	0.16785	0.0000	0.98000	0.99042
438	0.73225	0.16620	0.0000	0.98000	0.99038
439	0.73512	0.16771	0.0000	0.98000	0.99033
440	0.73393	0.16745	0.0000	0.98000	0.99030
441	0.73442	0.16782	0.0000	0.98000	0.99026
442	0.73047	0.16926	0.0000	0.98000	0.99023
443	0.73271	0.16907	0.0000	0.98000	0.99019
444	0.73712	0.16998	0.0000	0.98000	0.99016
445	0.73228	0.17111	0.0000	0.98000	0.99013
446	0.73647	0.17060	0.0000	0.98000	0.99010
447	0.73889	0.17048	0.0000	0.98000	0.99008
448	0.73666	0.16932	0.0000	0.98000	0.99005
449	0.73198	0.16928	0.0000	0.98000	0.99003
450	0.73570	0.16971	0.0000	0.98000	0.99000
451	0.73566	0.16985	0.0000	0.98000	0.99000
452	0.73392	0.16996	0.0000	0.98000	0.99000
453	0.73559	0.16844	0.0000	0.98000	0.99000
454	0.73920	0.17179	0.0000	0.98000	0.99000
455	0.73377	0.17209	0.0000	0.98000	0.99000
456	0.73827	0.17126	0.0000	0.98000	0.99000
457	0.74199	0.17083	0.0000	0.98000	0.99000
458	0.74236	0.17201	0.0000	0.98000	0.99000
459	0.73972	0.17206	0.0000	0.98000	0.99000
460	0.74093	0.17226	0.0000	0.98000	0.99000
461	0.73967	0.17271	0.0000	0.98000	0.99000
462	0.74283	0.17526	0.0000	0.98000	0.99000
463	0.73854	0.17432	0.0000	0.98000	0.99000
464	0.73656	0.17264	0.0000	0.98000	0.99000
465	0.73764	0.17134	0.0000	0.98000	0.99000
466	0.74024	0.17326	0.0000	0.98000	0.99000
467	0.73750	0.17213	0.0000	0.98000	0.99000
468	0.73898	0.17422	0.0000	0.98000	0.99000
469	0.74395	0.17409	0.0000	0.98000	0.99000
470	0.74085	0.17445	0.0000	0.98000	0.99000
471	0.74440	0.17463	0.0000	0.98000	0.99000
472	0.74071	0.17438	0.0000	0.98000	0.99000
473	0.73966	0.17447	0.0000	0.98000	0.99000
474	0.74524	0.17574	0.0000	0.98000	0.99000
475	0.74073	0.17422	0.0000	0.98000	0.99000
476	0.74138	0.17673	0.0000	0.98000	0.99000
477	0.74169	0.17708	0.0000	0.98000	0.99000
478	0.74380	0.17623	0.0000	0.98000	0.99000
479	0.74420	0.17601	0.0000	0.98000	0.99000
480	0.74045	0.17823	0.0000	0.98000	0.99000
481	0.74215	0.17744	0.0000	0.98000	0.99000
482	0.74428	0.17832	0.0000	0.98000	0.99000
483	0.74294	0.17743	0.0000	0.98000	0.99000
484	0.74305	0.17769	0.0000	0.98000	0.99000
485	0.74607	0.17773	0.0000	0.98000	0.99000
486	0.74732	0.17980	0.0000	0.98000	0.99000
487	0.74610	0.17864	0.0000	0.98000	0.99000
488	0.74587	0.17716	0.0000	0.98000	0.99000
489	0.74626	0.17859	0.0000	0.98000	0.99000
490	0.74314	0.17672	0.0000	0.98000	0.99000
491	0.74474	0.17893	0.0000	0.98000	0.99000
492	0.74498	0.17870	0.0000	0.98000	0.99000
493	0.74676	0.18111	0.0000	0.98000	0.99000
494	0.74222	0.18125	0.0000	0.98000	0.99000
495	0.74386	0.17895	0.0000	0.98000	0.99000
496	0.74628	0.17980	0.0000	0.98000	0.99000
497	0.74512	0.18021	0.0000	0.98000	0.99000
498	0.74529	0.17954	0.0000	0.98000	0.99000
499	0.74336	0.18043	0.0000	0.98000	0.99000
500	0.74618	0.18159	0.0000	0.98000	0.99000
501	0.74651	0.18049	0.0000	0.98000	0.99000
502	0.74445	0.18202	0.0000	0.98000	0.99000
503	0.74532	0.18142	0.0000	0.98000	0.99000
504	0.74632	0.18270	0.0000	0.98000	0.99000
505	0.74576	0.17940	0.0000	0.98000	0.99000
506	0.74574	0.18188	0.0000	0.98000	0.99000
507	0.74521	0.17965	0.0000	0.98000	0.99000
508	0.74422	0.18196	0.0000	0.98000	0.99000
509	0.74671	0.18262	0.0000	0.98000	0.99000
510	0.74440	0.18303	0.0000	0.98000	0.99000
511	0.74894	0.18361	0.0000	0.98000	0.99000
512	0.74447	0.18304	0.0000	0.98000	0.99000
513	0.74658	0.18278	0.0000	0.98000	0.99000
514	0.74503	0.18266	0.0000	0.98000	0.99000
515	0.74788	0.18322	0.0000	0.98000	0.99000
516	0.74570	0.18353	0.0000	0.98000	0.99000
517	0.74456	0.18265	0.0000	0.98000	0.99000
518	0.74128	0.18468	0.0000	0.98000	0.99000
519	0.74379	0.18471	0.0000	0.98000	0.99000
520	0.74293	0.18348	0.0000	0.98000	0.99000
521	0.74618	0.18410	0.0000	0.98000	0.99000
522	0.74170	0.18325	0.0000	0.98000	0.99000
523	0.74516	0.18466	0.0000	0.98000	0.99000
524	0.74257	0.18528	0.0000	0.98000	0.99000
525	0.74548	0.18276	0.0000	0.98000	0.99000
526	0.74536	0.18350	0.0000	0.98000	0.99000
527	0.74394	0.18484	0.0000	0.98000	0.99000
528	0.74327	0.18514	0.0000	0.98000	0.99000
529	0.74278	0.18551	0.0000	0.98000	0.99000
530	0.74212	0.18595	0.0000	0.98000	0.99000
531	0.74240	0.18548	0.0000	0.98000	0.99000
532	0.74348	0.18504	0.0000	0.98000	0.99000
533	0.74468	0.18651	0.0000	0.98000	0.99000
534	0.73999	0.18454	0.0000	0.98000	0.99000
535	0.74357	0.18766	0.0000	0.98000	0.99000
536	0.74372	0.18715	0.0000	0.98000	0.99000
537	0.74346	0.18669	0.0000	0.98000	0.99000
538	0.74344	0.18699	0.0000	0.98000	0.99000
539	0.74054	0.18736	0.0000	0.98000	0.99000
540	0.74103	0.18789	0.0000	0.98000	0.99000
541	0.74437	0.18756	0.0000	0.98000	0.99000
542	0.74029	0.18766	0.0000	0.98000	0.99000
543	0.74311	0.18755	0.0000	0.98000	0.99000
544	0.74277	0.18754	0.0000	0.98000	0.99000
545	0.74107	0.18771	0.0000	0.98000	0.99000
546	0.73983	0.18941	0.0000	0.98000	0.99000
547	0.74070	0.18754	0.0000	0.98000	0.99000
548	0.73978	0.18841	0.0000	0.98000	0.99000
549	0.73908	0.18725	0.0000	0.98000	0.99000
550	0.73914	0.18775	0.0000	0.98000	0.99000
551	0.74418	0.18784	0.0000	0.98000	0.99000
552	0.74054	0.18785	0.0000	0.98000	0.99000
553	0.73970	0.18850	0.0000	0.98000	0.99000
554	0.73771	0.18829	0.0000	0.98000	0.99000
555	0.74085	0.18997	0.0000	0.98000	0.99000
556	0.73744	0.18950	0.0000	0.98000	0.99000
557	0.73938	0.19071	0.0000	0.98000	0.99000
558	0.73827	0.18873	0.0000	0.98000	0.99000
559	0.73632	0.19013	0.0000	0.98000	0.99000
560	0.73582	0.18930	0.0000	0.98000	0.99000
561	0.73685	0.18913	0.0000	0.98000	0.99000
562	0.73534	0.18864	0.0000	0.98000	0.99000
563	0.73440	0.18771	0.0000	0.98000	0.99000
564	0.73909	0.19077	0.0000	0.98000	0.99000
565	0.73796	0.19002	0.0000	0.98000	0.99000
566	0.73359	0.19136	0.0000	0.98000	0.99000
567	0.73200	0.19091	0.0000	0.98000	0.99000
568	0.73437	0.19012	0.0000	0.98000	0.99000
569	0.73258	0.19013	0.0000	0.98000	0.99000
570	0.73725	0.19061	0.0000	0.98000	0.99000
571	0.73218	0.18994	0.0000	0.98000	0.99000
572	0.73447	0.18776	0.0000	0.98000	0.99000
573	0.73540	0.19123	0.0000	0.98000	0.99000
574	0.73442	0.19092	0.0000	0.98000	0.99000
575	0.73332	0.19019	0.0000	0.98000	0.99000
576	0.73265	0.18965	0.0000	0.98000	0.99000
577	0.73345	0.19094	0.0000	0.98000	0.99000
578	0.73460	0.19022	0.0000	0.98000	0.99000
579	0.73045	0.19090	0.0000	0.98000	0.99000
580	0.73225	0.19028	0.0000	0.98000	0.99000
581	0.73186	0.19074	0.0000	0.98000	0.99000
582	0.72993	0.19075	0.0000	0.98000	0.99000
583	0.72937	0.19050	0.0000	0.98000	0.99000
584	0.73135	0.19072	0.0000	0.98000	0.99000
585	0.73257	0.19045	0.0000	0.98000	0.99000
586	0.72842	0.19042	0.0000	0.98000	0.99000
587	0.72852	0.18880	0.0000	0.98000	0.99000
588	0.72617	0.18857	0.0000	0.98000	0.99000
589	0.72725	0.18915	0.0000	0.98000	0.99000
590	0.72782	0.18990	0.0000	0.98000	0.99000
591	0.72562	0.18879	0.0000	0.98000	0.99000
592	0.72426	0.18934	0.0000	0.98000	0.99000
593	0.72477	0.18908	0.0000	0.98000	0.99000
594	0.72646	0.18727	0.0000	0.98000	0.99000
595	0.72202	0.18921	0.0000	0.98000	0.99000
596	0.72381	0.18873	0.0000	0.98000	0.99000
597	0.72117	0.18888	0.0000	0.98000	0.99000
598	0.72405	0.18734	0.0000	0.98000	0.99000
599	0.72238	0.18850	0.0000	0.98000	0.99000
600	0.72197	0.18846	0.0000	0.98000	0.99000
601	0.72064	0.18939	0.0000	0.98000	0.99001
602	0.72215	0.18793	0.0000	0.98000	0.99003
603	0.71938	0.18831	0.0000	0.98000	0.99004
604	0.71980	0.18803	0.0000	0.98000	0.99005
605	0.71945	0.18684	0.0000	0.98000	0.99006
606	0.71707	0.18905	0.0000	0.98000	0.99008
607	0.72136	0.18966	0.0000	0.98000	0.99010
608	0.71502	0.18861	0.0000	0.98000	0.99011
609	0.71816	0.18919	0.0000	0.98000	0.99013
610	0.71944	0.18913	0.0000	0.98000	0.99015
611	0.71579	0.18897	0.0000	0.98000	0.99017
612	0.71634	0.18883	0.0000	0.98000	0.99019
613	0.71417	0.18965	0.0000	0.98000	0.99021
614	0.71696	0.18942	0.0000	0.98000	0.99023
615	0.71350	0.18830	0.0000	0.98000	0.99025
616	0.71402	0.18956	0.0000	0.98000	0.99027
617	0.71534	0.18893	0.0000	0.98000	0.99030
618	0.71335	0.18926	0.0000	0.98000	0.99032
619	0.71294	0.19140	0.0000	0.98000	0.99035
620	0.71388	0.19108	0.0000	0.98000	0.99037
621	0.71440	0.18902	0.0000	0.98000	0.99040
622	0.71189	0.18862	0.0000	0.98000	0.99042
623	0.70897	0.19186	0.0000	0.98000	0.99045
624	0.71117	0.18902	0.0000	0.98000	0.99047
625	0.70963	0.19210	0.0000	0.98000	0.99050
626	0.70750	0.19003	0.0000	0.98000	0.99053
627	0.71079	0.19003	0.0000	0.98000	0.99055
628	0.71033	0.19003	0.0000	0.98000	0.99058
629	0.70635	0.19087	0.0000	0.98000	0.99061
630	0.70736	0.18938	0.0000	0.98000	0.99063
631	0.70651	0.18855	0.0000	0.98000	0.99066
632	0.70871	0.19105	0.0000	0.98000	0.99069
633	0.70617	0.19291	0.0000	0.98000	0.99071
634	0.70237	0.19050	0.0000	0.98000	0.99074
635	0.70687	0.19010	0.0000	0.98000	0.99076
636	0.70160	0.19103	0.0000	0.98000	0.99079
637	0.70542	0.19039	0.0000	0.98000	0.99081
638	0.70190	0.19093	0.0000	0.98000	0.99083
639	0.70489	0.19156	0.0000	0.98000	0.99086
640	0.70507	0.18947	0.0000	0.98000	0.99088
641	0.70091	0.19053	0.0000	0.98000	0.99089
642	0.70152	0.19303	0.0000	0.98000	0.99091
643	0.69970	0.19104	0.0000	0.98000	0.99093
644	0.69832	0.19203	0.0000	0.98000	0.99095
645	0.70008	0.19136	0.0000	0.98000	0.99096
646	0.70308	0.19062	0.0000	0.98000	0.99097
647	0.69981	0.19115	0.0000	0.98000	0.99098
648	0.70125	0.19092	0.0000	0.98000	0.99098
649	0.70019	0.19119	0.0000	0.98000	0.99099
650	0.70143	0.19345	0.0000	0.98000	0.99100
651	0.70168	0.19258	0.0000	0.98000	0.99099
652	0.69410	0.19344	0.0000	0.98000	0.99098
653	0.69622	0.19220	0.0000	0.98000	0.99098
654	0.70021	0.19114	0.0000	0.98000	0.99097
655	0.69731	0.19440	0.0000	0.98000	0.99096
656	0.70190	0.19159	0.0000	0.98000	0.99095
657	0.69954	0.19327	0.0000	0.98000	0.99093
658	0.70021	0.19244	0.0000	0.98000	0.99091
659	0.69720	0.19286	0.0000	0.98000	0.99089
660	0.69966	0.19347	0.0000	0.98000	0.99088
661	0.69893	0.19417	0.0000	0.98000	0.99086
662	0.69884	0.19349	0.0000	0.98000	0.99083
663	0.69849	0.19405	0.0000	0.98000	0.99081
664	0.69707	0.19420	0.0000	0.98000	0.99079
665	0.69505	0.19237	0.0000	0.98000	0.99076
666	0.69379	0.19219	0.0000	0.98000	0.99074
667	0.69622	0.19396	0.0000	0.98000	0.99071
668	0.69384	0.19261	0.0000	0.98000	0.99069
669	0.69249	0.19497	0.0000	0.98000	0.99066
670	0.69378	0.19404	0.0000	0.98000	0.99063
671	0.69295	0.19370	0.0000	0.98000	0.99061
672	0.69054	0.19438	0.0000	0.98000	0.99058
673	0.68861	0.19544	0.0000	0.98000	0.99055
674	0.69101	0.19478	0.0000	0.98000	0.99053
675	0.69287	0.19316	0.0000	0.98000	0.99050
676	0.69095	0.19523	0.0000	0.98000	0.99047
677	0.68822	0.19516	0.0000	0.98000	0.99045
678	0.68744	0.19475	0.0000	0.98000	0.99042
679	0.68478	0.19381	0.0000	0.98000	0.99040
680	0.68297	0.19391	0.0000	0.98000	0.99037
681	0.68713	0.19547	0.0000	0.98000	0.99035
682	0.68373	0.19421	0.0000	0.98000	0.99032
683	0.68804	0.19401	0.0000	0.98000	0.99030
684	0.68113	0.19376	0.0000	0.98000	0.99027
685	0.68083	0.19480	0.0000	0.98000	0.99025
686	0.68065	0.19186	0.0000	0.98000	0.99023
687	0.67880	0.19480	0.0000	0.98000	0.99021
688	0.68075	0.19346	0.0000	0.98000	0.99019
689	0.67934	0.19390	0.0000	0.98000	0.99017
690	0.67794	0.19153	0.0000	0.98000	0.99015
691	0.67791	0.19353	0.0000	0.98000	0.99013
692	0.67638	0.19460	0.0000	0.98000	0.99011
693	0.67473	0.19194	0.0000	0.98000	0.99010
694	0.67587	0.19098	0.0000	0.98000	0.99008
695	0.67397	0.19281	0.0000	0.98000	0.99006
696	0.67229	0.19305	0.0000	0.98000	0.99005
697	0.67099	0.19216	0.0000	0.98000	0.99004
698	0.67055	0.19053	0.0000	0.98000	0.99003
699	0.66652	0.19140	0.0000	0.98000	0.99001
700	0.66829	0.19211	0.0000	0.98000	0.99000
701	0.66674	0.18677	0.0000	0.98000	0.99000
702	0.66478	0.18754	0.0000	0.98000	0.99000
703	0.66673	0.18925	0.0000	0.98000	0.99000
704	0.66865	0.18800	0.0000	0.98000	0.99000
705	0.65945	0.18778	0.0000	0.98000	0.99000
706	0.66095	0.18717	0.0000	0.98000	0.99000
707	0.66083	0.18509	0.0000	0.98000	0.99000
708	0.65853	0.18573	0.0000	0.98000	0.99000
709	0.65829	0.18448	0.0000	0.98000	0.99000
710	0.65313	0.18305	0.0000	0.98000	0.99000
711	0.65611	0.18282	0.0000	0.98000	0.99000
712	0.65081	0.18281	0.0000	0.98000	0.99000
713	0.65228	0.17901	0.0000	0.98000	0.99000
714	0.65531	0.18277	0.0000	0.98000	0.99000
715	0.64390	0.17878	0.0000	0.98000	0.99000
716	0.64732	0.18004	0.0000	0.98000	0.99000
717	0.64663	0.17835	0.0000	0.98000	0.99000
718	0.64394	0.17501	0.0000	0.98000	0.99000
719	0.63678	0.17720	0.0000	0.98000	0.99000
720	0.63867	0.17374	0.0000	0.98000	0.99000
721	0.63736	0.17538	0.0000	0.98000	0.99000
722	0.63416	0.17176	0.0000	0.98000	0.99000
723	0.63383	0.16932	0.0000	0.98000	0.99000
724	0.62930	0.16940	0.0000	0.98000	0.99000
725	0.62482	0.16599	0.0000	0.98000	0.99000
726	0.62570	0.16192	0.0000	0.98000	0.99000
727	0.61935	0.16392	0.0000	0.98000	0.99000
728	0.62065	0.16213	0.0000	0.98000	0.99000
729	0.61484	0.16188	0.0000	0.98000	0.99000
730	0.61460	0.15884	0.0000	0.98000	0.99000
731	0.60792	0.15894	0.0000	0.98000	0.99000
732	0.61057	0.15912	0.0000	0.98000	0.99000
733	0.61278	0.15486	0.0000	0.98000	0.99000
734	0.60367	0.15431	0.0000	0.98000	0.99000
735	0.60468	0.15556	0.0000	0.98000	0.99000
736	0.60393	0.15627	0.0000	0.98000	0.99000
737	0.60287	0.15661	0.0000	0.98000	0.99000
738	0.59965	0.15668	0.0000	0.98000	0.99000
739	0.60275	0.15689	0.0000	0.98000	0.99000
740	0.60430	0.15575	0.0000	0.98000	0.99000
741	0.60587	0.15545	0.0000	0.98000	0.99000
742	0.60057	0.15503	0.0000	0.98000	0.99000
743	0.59909	0.15523	0.0000	0.98000	0.99000
744	0.59841	0.15695	0.0000	0.98000	0.99000
745	0.59770	0.15706	0.0000	0.98000	0.99000
746	0.59880	0.15863	0.0000	0.98000	0.99000
747	0.59879	0.15601	0.0000	0.98000	0.99000
748	0.59755	0.15717	0.0000	0.98000	0.99000
749	0.60262	0.16023	0.0000	0.98000	0.99000
750	0.59550	0.15705	0.0000	0.98000	0.99000
751	0.59998	0.15802	0.0000	0.98000	0.99000
752	0.59698	0.15516	0.0000	0.98000	0.99000
753	0.59614	0.15612	0.0000	0.98000	0.99000
754	0.59614	0.15331	0.0000	0.98000	0.99000
755	0.59890	0.16003	0.0000	0.98000	0.99000
756	0.59406	0.15738	0.0000	0.98000	0.99000
757	0.59642	0.15686	0.0000	0.98000	0.99000
758	0.59597	0.15599	0.0000	0.98000	0.99000
759	0.59334	0.16155	0.0000	0.98000	0.99000
760	0.59817	0.15794	0.0000	0.98000	0.99000
761	0.59760	0.16142	0.0000	0.98000	0.99000
762	0.58970	0.16202	0.0000	0.98000	0.99000
763	0.59009	0.16021	0.0000	0.98000	0.99000
764	0.58763	0.16166	0.0000	0.98000	0.99000
765	0.59649	0.16659	0.0000	0.98000	0.99000
766	0.59616	0.15900	0.0000	0.98000	0.99000
767	0.59137	0.16226	0.0000	0.98000	0.99000
768	0.59337	0.16192	0.0000	0.98000	0.99000
769	0.59394	0.16111	0.0000	0.98000	0.99000
770	0.58698	0.16568	0.0000	0.98000	0.99000
771	0.58777	0.16176	0.0000	0.98000	0.99000
772	0.58878	0.16914	0.0000	0.98000	0.99000
773	0.59103	0.16264	0.0000	0.98000	0.99000
774	0.59156	0.16547	0.0000	0.98000	0.99000
775	0.58914	0.16674	0.0000	0.98000	0.99000
776	0.59841	0.16304	0.0000	0.98000	0.99000
777	0.59405	0.16667	0.0000	0.98000	0.99000
778	0.59006	0.16336	0.0000	0.98000	0.99000
779	0.58869	0.16701	0.0000	0.98000	0.99000
780	0.59300	0.16916	0.0000	0.98000	0.99000
781	0.59078	0.16871	0.0000	0.98000	0.99000
782	0.58697	0.16953	0.0000	0.98000	0.99000
783	0.59279	0.17301	0.0000	0.98000	0.99000
784	0.59138	0.16711	0.0000	0.98000	0.99000
785	0.59122	0.17048	0.0000	0.98000	0.99000
786	0.59724	0.16941	0.0000	0.98000	0.99000
787	0.60051	0.17090	0.0000	0.98000	0.99000
788	0.59448	0.17242	0.0000	0.98000	0.99000
789	0.59227	0.17267	0.0000	0.98000	0.99000
790	0.58479	0.17057	0.0000	0.98000	0.99000
791	0.59748	0.17554	0.0000	0.98000	0.99000
792	0.60238	0.17753	0.0000	0.98000	0.99000
793	0.59622	0.17774	0.0000	0.98000	0.99000
794	0.59295	0.17742	0.0000	0.98000	0.99000
795	0.59900	0.17439	0.0000	0.98000	0.99000
796	0.59287	0.17548	0.0000	0.98000	0.99000
797	0.58916	0.17800	0.0000	0.98000	0.99000
798	0.59480	0.17936	0.0000	0.98000	0.99000
799	0.59708	0.17219	0.0000	0.98000	0.99000
800	0.60248	0.17670	0.0000	0.98000	0.99000
801	0.60182	0.17409	0.0000	0.98000	0.99000
802	0.59619	0.17284	0.0000	0.98000	0.99000
803	0.59389	0.18029	0.0000	0.98000	0.99000
804	0.59776	0.17622	0.0000	0.98000	0.99000
805	0.59755	0.17890	0.0000	0.98000	0.99000
806	0.59414	0.17267	0.0000	0.98000	0.99000
807	0.59281	0.17314	0.0000	0.98000	0.99000
808	0.59791	0.17707	0.0000	0.98000	0.99000
809	0.60207	0.18351	0.0000	0.98000	0.99000
810	0.59391	0.18067	0.0000	0.98000	0.99000
811	0.59649	0.18180	0.0000	0.98000	0.99000
812	0.59080	0.18293	0.0000	0.98000	0.99000
813	0.59634	0.18439	0.0000	0.98000	0.99000
814	0.58559	0.17607	0.0000	0.98000	0.99000
815	0.58801	0.17708	0.0000	0.98000	0.99000
816	0.58725	0.17229	0.0000	0.98000	0.99000
817	0.59394	0.17491	0.0000	0.98000	0.99000
818	0.58728	0.17545	0.0000	0.98000	0.99000
819	0.58787	0.17540	0.0000	0.98000	0.99000
820	0.59406	0.17233	0.0000	0.98000	0.99000
821	0.58188	0.17663	0.0000	0.98000	0.99000
822	0.58240	0.16755	0.0000	0.98000	0.99000
823	0.57880	0.16962	0.0000	0.98000	0.99000
824	0.57603	0.17173	0.0000	0.98000	0.99000
825	0.56570	0.16796	0.0000	0.98000	0.99000
826	0.57583	0.16009	0.0000	0.98000	0.99000
827	0.57044	0.17252	0.0000	0.98000	0.99000
828	0.56898	0.16270	0.0000	0.98000	0.99000
829	0.55537	0.15772	0.0000	0.98000	0.99000
830	0.55708	0.16005	0.0000	0.98000	0.99000
831	0.55969	0.15525	0.0000	0.98000	0.99000
832	0.56650	0.15261	0.0000	0.98000	0.99000
833	0.55231	0.15988	0.0000	0.98000	0.99000
834	0.53772	0.15427	0.0000	0.98000	0.99000
835	0.56149	0.15741	0.0000	0.98000	0.99000
836	0.56192	0.15705	0.0000	0.98000	0.99000
837	0.54290	0.16213	0.0000	0.98000	0.99000
838	0.55862	0.15823	0.0000	0.98000	0.99000
839	0.55374	0.15506	0.0000	0.98000	0.99000
840	0.55199	0.15570	0.0000	0.98000	0.99000
841	0.56511	0.16297	0.0000	0.98000	0.99000
842	0.53326	0.15803	0.0000	0.98000	0.99000
843	0.55491	0.16663	0.0000	0.98000	0.99000
844	0.54363	0.16477	0.0000	0.98000	0.99000
845	0.54280	0.14968	0.0000	0.98000	0.99000
846	0.55677	0.16554	0.0000	0.98000	0.99000
847	0.56446	0.16187	0.0000	0.98000	0.99000
848	0.54535	0.16278	0.0000	0.98000	0.99000
849	0.55387	0.16442	0.0000	0.98000	0.99000
850	0.55562	0.15877	0.0000	0.98000	0.99000
851	0.55377	0.17965	0.0000	0.98000	0.99001
852	0.54168	0.15433	0.0000	0.98000	0.99002
853	0.55296	0.15606	0.0000	0.98000	0.99003
854	0.55482	0.17003	0.0000	0.98000	0.99004
855	0.52734	0.18541	0.0000	0.98000	0.99006
856	0.59027	0.15412	0.0000	0.98000	0.99007
857	0.55343	0.16344	0.0000	0.98000	0.99008
858	0.57188	0.16203	0.0000	0.98000	0.99009
859	0.57423	0.15623	0.0000	0.98000	0.99011
860	0.54838	0.16653	0.0000	0.98000	0.99012
861	0.58024	0.16500	0.0000	0.98000	0.99013
862	0.54980	0.16956	0.0000	0.98000	0.99015
863	0.49804	0.15767	0.0000	0.98000	0.99017
864	0.56791	0.18557	0.0000	0.98000	0.99018
865	0.57859	0.16033	0.0000	0.98000	0.99020
866	0.56043	0.15643	0.0000	0.98000	0.99021
867	0.57018	0.15782	0.0000	0.98000	0.99023
868	0.60692	0.15204	0.0000	0.98000	0.99025
869	0.59329	0.14769	0.0000	0.98000	0.99026
870	0.63881	0.15984	0.0000	0.98000	0.99028
871	0.65100	0.13391	0.0000	0.98000	0.99030
872	0.59142	0.17303	0.0000	0.98000	0.99032
873	0.50971	0.16180	0.0000	0.98000	0.99034
874	0.63631	0.16244	0.0000	0.98000	0.99036
875	0.69559	0.21053	0.0000	0.98000	0.99038
876	0.60373	0.16717	0.0000	0.98000	0.99040
877	0.63816	0.14663	0.0000	0.98000	0.99042
878	0.60048	0.17717	0.0000	0.98000	0.99044
879	0.65247	0.20902	0.0000	0.98000	0.99046
880	0.64174	0.11211	0.0000	0.98000	0.99048
881	0.58696	0.15063	0.0000	0.98000	0.99050
882	0.62933	0.16901	0.0000	0.98000	0.99053
883	0.55073	0.15284	0.0000	0.98000	0.99055
884	0.67675	0.23558	0.0000	0.98000	0.99057
885	0.63864	0.15493	0.0000	0.98000	0.99060
886	0.52600	0.20856	0.0000	0.98000	0.99062
887	0.56617	0.17647	0.0000	0.98000	0.99065
888	0.78848	0.20482	0.0000	0.98000	0.99067
889	0.67346	0.14458	0.0000	0.98000	0.99069
890	0.69825	0.27586	0.0000	0.98000	0.99072
